Wavelength(nm),Intensity
345.532,-9.28
345.749,-9.28
345.966,-9.28
346.184,-9.65
346.401,-6.0
346.618,-4.12
346.836,3.44
347.053,-2.19
347.27,-2.81
347.487,1.72
347.705,6.06
347.922,-4.98
348.139,4.48
348.356,-8.83
348.574,3.05
348.791,2.03
349.008,2.15
349.225,-0.33
349.442,103.87
349.659,147.31
349.877,156.59
350.094,154.7
350.311,161.48
350.528,155.71
350.745,165.99
350.962,155.11
351.179,160.62
351.396,159.39
351.613,165.43
351.83,164.7
352.047,176.82
352.264,171.43
352.481,171.86
352.698,176.55
352.915,177.99
353.132,179.71
353.349,175.49
353.566,178.64
353.783,182.82
354.0,183.86
354.217,184.27
354.433,197.28
354.65,201.99
354.867,193.16
355.084,201.76
355.301,191.81
355.518,196.26
355.735,200.43
355.951,206.72
356.168,203.48
356.385,204.32
356.602,214.11
356.818,214.56
357.035,211.23
357.252,224.66
357.469,216.69
357.685,219.52
357.902,224.41
358.119,221.71
358.335,227.86
358.552,228.59
358.769,234.43
358.985,235.08
359.202,235.8
359.419,252.62
359.635,244.98
359.852,245.61
360.068,253.7
360.285,257.57
360.501,256.47
360.718,258.47
360.934,268.02
361.151,257.37
361.367,264.02
361.584,278.67
361.8,269.98
362.017,268.49
362.233,277.07
362.45,286.88
362.666,279.14
362.883,279.22
363.099,281.84
363.315,295.4
363.532,299.84
363.748,295.58
363.965,291.9
364.181,291.79
364.397,299.21
364.614,305.35
364.83,301.3
365.046,318.95
365.262,317.27
365.479,321.28
365.695,318.42
365.911,342.95
366.128,321.14
366.344,343.5
366.56,333.35
366.776,339.57
366.992,333.49
367.209,351.43
367.425,347.05
367.641,357.41
367.857,352.99
368.073,369.84
368.289,359.31
368.505,364.39
368.722,376.99
368.938,375.64
369.154,370.99
369.37,386.08
369.586,380.04
369.802,395.56
370.018,397.24
370.234,398.92
370.45,397.0
370.666,415.2
370.882,397.14
371.098,407.42
371.314,407.87
371.53,415.84
371.746,421.18
371.962,424.81
372.178,431.89
372.393,433.78
372.609,432.98
372.825,444.49
373.041,431.67
373.257,453.3
373.473,443.06
373.689,465.52
373.904,455.26
374.12,458.87
374.336,474.94
374.552,473.37
374.767,471.24
374.983,470.58
375.199,483.61
375.415,475.29
375.63,478.85
375.846,496.36
376.062,496.36
376.278,502.43
376.493,498.11
376.709,511.95
376.925,507.18
377.14,518.18
377.356,524.32
377.571,526.9
377.787,527.8
378.003,534.8
378.218,518.89
378.434,558.77
378.649,537.24
378.865,554.69
379.08,549.71
379.296,575.74
379.511,556.23
379.727,568.17
379.942,574.62
380.158,588.63
380.373,577.03
380.589,586.97
380.804,580.64
381.02,599.3
381.235,609.37
381.45,602.43
381.666,612.05
381.881,614.49
382.096,637.59
382.312,620.41
382.527,623.58
382.742,631.76
382.958,626.53
383.173,645.13
383.388,643.57
383.604,633.99
383.819,643.9
384.034,667.17
384.249,653.65
384.465,668.74
384.68,677.14
384.895,683.55
385.11,680.07
385.325,679.62
385.541,680.74
385.756,692.19
385.971,698.38
386.186,713.59
386.401,702.72
386.616,719.65
386.831,718.94
387.046,723.44
387.261,709.37
387.477,756.72
387.692,728.03
387.907,754.74
388.122,744.74
388.337,763.73
388.552,747.42
388.767,750.97
388.982,759.57
389.197,769.99
389.411,745.77
389.626,775.2
389.841,767.88
390.056,782.12
390.271,804.11
390.486,791.05
390.701,798.19
390.916,803.99
391.131,813.47
391.345,800.63
391.56,819.41
391.775,814.33
391.99,821.77
392.205,804.01
392.42,831.88
392.634,859.18
392.849,849.19
393.064,854.47
393.279,870.9
393.493,867.52
393.708,859.08
393.923,869.46
394.137,865.53
394.352,873.72
394.567,871.59
394.781,903.58
394.996,880.34
395.211,934.1
395.425,884.21
395.64,928.67
395.854,932.85
396.069,920.4
396.284,921.5
396.498,927.01
396.713,904.46
396.927,956.42
397.142,924.04
397.356,968.28
397.571,934.51
397.785,983.35
398.0,979.83
398.214,980.05
398.428,963.61
398.643,1025.21
398.857,960.5
399.072,1022.57
399.286,992.34
399.5,1008.48
399.715,1008.52
399.929,1029.7
400.144,1034.47
400.358,1057.82
400.572,1076.37
400.787,1058.74
401.001,1078.36
401.215,1107.01
401.429,1047.66
401.644,1073.05
401.858,1096.67
402.072,1107.99
402.286,1107.74
402.501,1143.54
402.715,1144.01
402.929,1136.44
403.143,1131.4
403.357,1144.75
403.571,1135.21
403.786,1185.3
404.0,1179.89
404.214,1177.85
404.428,1209.32
404.642,1184.58
404.856,1236.91
405.07,1229.7
405.284,1276.78
405.498,1223.02
405.712,1261.36
405.926,1262.35
406.14,1270.21
406.354,1279.24
406.568,1263.1
406.782,1291.24
406.996,1308.63
407.21,1334.91
407.424,1346.29
407.638,1351.64
407.852,1373.98
408.066,1335.23
408.28,1343.08
408.493,1398.35
408.707,1384.14
408.921,1434.99
409.135,1431.18
409.349,1404.6
409.563,1449.22
409.776,1494.81
409.99,1457.64
410.204,1477.1
410.418,1473.7
410.631,1496.26
410.845,1492.89
411.059,1499.71
411.273,1535.52
411.486,1524.71
411.7,1564.01
411.914,1540.99
412.127,1584.12
412.341,1573.96
412.555,1558.71
412.768,1588.12
412.982,1588.63
413.195,1634.83
413.409,1624.53
413.623,1670.28
413.836,1640.81
414.05,1715.01
414.263,1691.83
414.477,1728.32
414.69,1730.84
414.904,1709.5
415.117,1753.14
415.331,1789.84
415.544,1755.17
415.758,1787.28
415.971,1783.47
416.185,1778.29
416.398,1870.37
416.611,1812.23
416.825,1837.93
417.038,1854.31
417.251,1903.81
417.465,1896.48
417.678,1912.92
417.891,1883.56
418.105,1886.34
418.318,1947.08
418.531,1955.03
418.745,1969.18
418.958,1969.65
419.171,1980.73
419.384,2031.83
419.598,2010.65
419.811,2060.5
420.024,2051.57
420.237,2078.28
420.45,2129.97
420.664,2109.45
420.877,2106.93
421.09,2159.7
421.303,2152.41
421.516,2197.49
421.729,2170.17
421.942,2225.24
422.155,2222.58
422.368,2295.59
422.582,2253.44
422.795,2236.71
423.008,2287.05
423.221,2285.2
423.434,2343.1
423.647,2335.24
423.86,2344.16
424.073,2485.62
424.286,2376.67
424.498,2460.55
424.711,2448.86
424.924,2472.02
425.137,2485.33
425.35,2534.97
425.563,2565.55
425.776,2536.39
425.989,2523.77
426.202,2583.82
426.414,2659.51
426.627,2615.36
426.84,2758.37
427.053,2705.98
427.266,2730.68
427.478,2716.24
427.691,2768.18
427.904,2779.95
428.117,2919.58
428.329,2860.17
428.542,2843.95
428.755,2889.19
428.967,2905.27
429.18,2958.15
429.393,3078.38
429.605,2994.27
429.818,3065.4
430.031,3006.89
430.243,3019.48
430.456,3165.89
430.668,3153.07
430.881,3168.6
431.094,3113.28
431.306,3241.34
431.519,3291.06
431.731,3248.69
431.944,3247.93
432.156,3274.93
432.369,3433.13
432.581,3464.94
432.794,3538.27
433.006,3444.03
433.218,3531.54
433.431,3470.71
433.643,3519.33
433.856,3633.61
434.068,3616.16
434.28,3651.87
434.493,3626.99
434.705,3647.8
434.918,3811.02
435.13,3710.0
435.342,3751.32
435.554,3849.44
435.767,3881.51
435.979,3945.02
436.191,3958.21
436.404,3961.69
436.616,4130.71
436.828,4063.8
437.04,3951.08
437.252,4162.17
437.465,4036.93
437.677,4124.65
437.889,4315.29
438.101,4146.42
438.313,4216.34
438.525,4348.37
438.737,4245.7
438.949,4343.82
439.162,4304.23
439.374,4384.8
439.586,4440.85
439.798,4365.43
440.01,4556.01
440.222,4392.34
440.434,4605.1
440.646,4573.05
440.858,4545.94
441.07,4609.5
441.282,4657.92
441.494,4730.46
441.706,4766.34
441.918,4634.49
442.129,4764.72
442.341,4709.49
442.553,4796.67
442.765,4919.65
442.977,4917.23
443.189,4805.5
443.401,4926.55
443.612,4901.75
443.824,5091.39
444.036,5157.73
444.248,5070.11
444.46,5109.05
444.671,5098.36
444.883,5131.35
445.095,5104.36
445.307,5068.78
445.518,5270.38
445.73,5227.25
445.942,5257.77
446.153,5314.62
446.365,5363.61
446.577,5275.42
446.788,5306.06
447.0,5370.22
447.212,5557.78
447.423,5406.12
447.635,5532.59
447.846,5384.03
448.058,5667.47
448.269,5493.78
448.481,5571.91
448.692,5583.4
448.904,5752.46
449.115,5662.82
449.327,5752.11
449.538,5797.74
449.75,5830.18
449.961,5912.38
450.173,5847.93
450.384,5820.04
450.596,5852.05
450.807,5865.59
451.018,5938.39
451.23,6009.13
451.441,5840.19
451.652,6025.16
451.864,6068.85
452.075,5889.96
452.286,6036.12
452.498,6105.1
452.709,6010.44
452.92,5989.12
453.131,6152.2
453.343,6163.89
453.554,6159.0
453.765,6303.48
453.976,6260.31
454.187,6298.49
454.399,6343.72
454.61,6460.91
454.821,6517.47
455.032,6518.33
455.243,6351.38
455.454,6454.19
455.665,6729.07
455.877,6589.77
456.088,6570.66
456.299,6617.91
456.51,6742.22
456.721,6690.77
456.932,6750.86
457.143,6822.62
457.354,7045.63
457.565,6929.96
457.776,6921.78
457.987,6975.87
458.198,6995.08
458.409,7026.74
458.62,7017.32
458.83,7054.6
459.041,7105.86
459.252,7151.83
459.463,7318.91
459.674,7332.48
459.885,7276.41
460.096,7528.68
460.306,7385.42
460.517,7538.76
460.728,7579.12
460.939,7603.41
461.15,7418.29
461.36,7735.85
461.571,7921.73
461.782,7849.06
461.993,7738.35
462.203,8043.48
462.414,7928.75
462.625,7996.72
462.835,8236.6
463.046,8273.18
463.257,8299.08
463.467,8164.41
463.678,8347.17
463.889,8401.09
464.099,8464.6
464.31,8605.38
464.52,8524.98
464.731,8645.13
464.941,8664.32
465.152,8694.2
465.362,8875.49
465.573,8990.21
465.783,9010.0
465.994,8908.58
466.204,9099.25
466.415,9440.34
466.625,9415.96
466.836,9221.45
467.046,9540.67
467.257,9347.4
467.467,9569.81
467.677,9544.0
467.888,9629.83
468.098,9759.45
468.308,9970.1
468.519,9911.9
468.729,10193.23
468.939,10363.76
469.15,10316.85
469.36,10181.56
469.57,10292.02
469.78,10612.37
469.991,10389.9
470.201,10832.81
470.411,10681.02
470.621,11104.27
470.831,10791.34
471.042,11062.06
471.252,11251.15
471.462,10956.55
471.672,11210.62
471.882,11428.01
472.092,11317.42
472.302,11462.56
472.512,11594.98
472.723,11786.59
472.933,11900.64
473.143,11897.1
473.353,12044.1
473.563,12188.61
473.773,12433.11
473.983,12234.46
474.193,12245.44
474.403,12696.95
474.613,12803.53
474.822,12862.76
475.032,12801.09
475.242,13034.3
475.452,13020.21
475.662,13227.19
475.872,13316.46
476.082,13395.15
476.292,13507.99
476.502,13534.9
476.711,13747.17
476.921,13825.9
477.131,13890.57
477.341,14059.73
477.551,14172.13
477.76,14138.95
477.97,14534.31
478.18,14542.67
478.39,14632.98
478.599,14716.25
478.809,14914.72
479.019,14821.95
479.228,15051.46
479.438,15279.83
479.648,15477.58
479.857,15493.19
480.067,15642.34
480.276,15575.07
480.486,15822.2
480.696,15938.83
480.905,15818.65
481.115,16091.52
481.324,16122.59
481.534,16254.58
481.743,16420.33
481.953,16478.49
482.162,16380.88
482.372,16680.54
482.581,16777.51
482.791,16746.05
483.0,17201.17
483.21,17198.59
483.419,17006.47
483.628,17388.09
483.838,17618.92
484.047,17553.16
484.257,17644.09
484.466,17736.7
484.675,18054.99
484.885,18000.7
485.094,18242.57
485.303,18135.23
485.512,18363.64
485.722,18461.84
485.931,18475.79
486.14,18679.32
486.349,18757.22
486.559,18865.54
486.768,19024.69
486.977,18921.94
487.186,19260.86
487.395,19188.11
487.605,19337.02
487.814,19401.66
488.023,19357.44
488.232,19725.13
488.441,19699.04
488.65,19763.14
488.859,19897.02
489.068,19915.29
489.277,20166.84
489.486,20260.94
489.695,20300.0
489.904,20370.14
490.113,20568.26
490.322,20702.53
490.531,20610.71
490.74,20942.59
490.949,20729.35
491.158,21115.35
491.367,21036.12
491.576,20968.6
491.785,21069.85
491.994,21091.68
492.203,21286.24
492.412,21126.07
492.62,21376.98
492.829,21477.8
493.038,21520.5
493.247,21694.97
493.456,21656.96
493.664,21937.63
493.873,22126.76
494.082,22080.03
494.291,22221.3
494.499,22270.37
494.708,22433.61
494.917,22373.89
495.126,22511.07
495.334,22535.58
495.543,22610.17
495.751,22632.33
495.96,22723.89
496.169,22646.31
496.377,22866.84
496.586,22814.49
496.795,22885.23
497.003,22853.36
497.212,22941.69
497.42,23150.81
497.629,23084.58
497.837,23219.54
498.046,23476.19
498.254,23348.64
498.463,23596.47
498.671,23438.59
498.88,23765.43
499.088,23741.16
499.297,23705.93
499.505,23740.89
499.713,23887.28
499.922,24016.26
500.13,23894.16
500.338,24028.67
500.547,24183.76
500.755,24231.97
500.963,24206.03
501.172,24171.21
501.38,24368.0
501.588,24196.42
501.797,24339.59
502.005,24445.6
502.213,24399.99
502.421,24321.49
502.63,24649.04
502.838,24650.03
503.046,24766.84
503.254,24544.99
503.462,24814.4
503.67,24629.18
503.879,24909.97
504.087,24888.94
504.295,24789.33
504.503,24898.65
504.711,24883.06
504.919,25013.05
505.127,25146.29
505.335,24911.04
505.543,25096.91
505.751,25295.5
505.959,25160.42
506.167,25258.33
506.375,25331.49
506.583,25256.2
506.791,25190.89
506.999,25268.25
507.207,25365.4
507.415,25193.74
507.623,25329.42
507.831,25406.16
508.039,25608.05
508.246,25191.26
508.454,25676.45
508.662,25511.11
508.87,25479.19
509.078,25620.31
509.286,25617.49
509.493,25359.57
509.701,25574.89
509.909,25719.19
510.117,25477.24
510.324,25853.99
510.532,25767.97
510.74,25809.48
510.947,26020.28
511.155,25898.0
511.363,26053.19
511.57,25837.46
511.778,26078.65
511.986,26016.84
512.193,26025.63
512.401,26023.43
512.609,26036.23
512.816,26017.09
513.024,26214.76
513.231,25895.31
513.439,26291.92
513.646,26167.49
513.854,26165.48
514.061,26215.94
514.269,26235.87
514.476,26216.82
514.684,26312.01
514.891,26127.25
515.099,26313.32
515.306,26111.42
515.513,26405.61
515.721,26048.34
515.928,26526.5
516.135,26258.6
516.343,26476.55
516.55,26507.6
516.757,26661.99
516.965,26436.92
517.172,26705.0
517.379,26625.35
517.587,26928.74
517.794,26722.84
518.001,26888.95
518.208,26719.85
518.416,26850.77
518.623,26777.76
518.83,26958.25
519.037,26734.47
519.244,27138.92
519.451,26998.6
519.659,27035.52
519.866,26987.02
520.073,27334.87
520.28,27041.42
520.487,27221.29
520.694,27009.98
520.901,27267.92
521.108,27049.86
521.315,27074.33
521.522,26915.33
521.729,27018.58
521.936,27169.01
522.143,27201.47
522.35,27098.95
522.557,27090.55
522.764,27318.84
522.971,27350.25
523.178,27226.23
523.385,27443.54
523.592,27141.11
523.799,27467.23
524.005,27331.29
524.212,27552.18
524.419,27329.98
524.626,27481.88
524.833,27463.14
525.04,27485.11
525.246,27717.68
525.453,27590.01
525.66,27565.35
525.867,27914.47
526.073,27754.48
526.28,27819.56
526.487,27815.37
526.693,27860.77
526.9,27761.85
527.107,28037.26
527.313,27748.54
527.52,27646.63
527.727,27804.82
527.933,27754.56
528.14,27627.77
528.346,28115.27
528.553,27855.16
528.759,27947.71
528.966,27989.46
529.173,28244.52
529.379,28138.37
529.586,28131.82
529.792,28297.13
529.999,28377.0
530.205,28281.38
530.411,28531.99
530.618,28441.12
530.824,28439.42
531.031,28543.46
531.237,28570.84
531.443,28731.65
531.65,28987.46
531.856,28841.67
532.062,28747.85
532.269,28790.04
532.475,28725.79
532.681,28771.46
532.888,28702.63
533.094,28657.82
533.3,28793.13
533.506,28364.43
533.713,28655.32
533.919,28652.15
534.125,28773.0
534.331,28819.98
534.538,28774.94
534.744,29033.17
534.95,29023.22
535.156,28819.9
535.362,28908.1
535.568,28977.38
535.774,29005.52
535.98,28884.3
536.186,29013.04
536.393,28780.0
536.599,29014.58
536.805,28926.0
537.011,29098.01
537.217,29046.95
537.423,28979.51
537.629,28874.74
537.835,29201.47
538.04,29068.5
538.246,29160.27
538.452,29216.65
538.658,29386.53
538.864,28989.61
539.07,29377.41
539.276,29179.5
539.482,29453.05
539.688,29550.41
539.893,29523.52
540.099,29466.09
540.305,29699.23
540.511,29623.33
540.717,29554.05
540.922,29701.42
541.128,29749.78
541.334,29455.44
541.54,29907.69
541.745,29691.72
541.951,29620.24
542.157,29669.41
542.362,29724.61
542.568,29742.42
542.774,29847.52
542.979,29740.64
543.185,29730.03
543.39,29630.07
543.596,29943.57
543.802,29779.66
544.007,29903.89
544.213,29940.4
544.418,30006.73
544.624,30049.56
544.829,30088.39
545.035,30001.68
545.24,30116.44
545.446,30087.1
545.651,30391.83
545.857,30131.6
546.062,30175.16
546.267,30108.21
546.473,30419.91
546.678,30486.25
546.884,30277.41
547.089,30219.03
547.294,30457.84
547.5,30242.82
547.705,30236.74
547.91,30259.88
548.116,30264.23
548.321,30665.46
548.526,30550.04
548.731,30421.84
548.937,30756.68
549.142,30566.4
549.347,30756.99
549.552,30605.17
549.757,30832.5
549.963,30591.59
550.168,30628.7
550.373,30559.24
550.578,30586.86
550.783,30638.94
550.988,30523.4
551.193,30770.91
551.398,30708.88
551.603,30673.8
551.808,30672.26
552.013,30588.15
552.218,30682.73
552.424,30846.09
552.628,30621.72
552.833,30879.11
553.038,30741.2
553.243,30767.21
553.448,30963.09
553.653,31160.6
553.858,31044.6
554.063,30960.8
554.268,31168.51
554.473,31121.75
554.678,31376.29
554.883,31266.01
555.087,31511.66
555.292,31318.52
555.497,31674.19
555.702,31524.3
555.907,31681.24
556.111,31772.72
556.316,31667.31
556.521,31678.9
556.725,31909.4
556.93,31692.46
557.135,31980.71
557.34,31898.4
557.544,31809.83
557.749,32055.95
557.954,31898.42
558.158,32079.77
558.363,32042.72
558.567,31995.35
558.772,32086.08
558.977,31970.35
559.181,32195.03
559.386,31937.37
559.59,32118.35
559.795,32044.87
559.999,32296.4
560.204,31935.45
560.408,32239.84
560.613,32264.48
560.817,32212.83
561.021,32354.28
561.226,32732.93
561.43,32454.59
561.635,32555.21
561.839,32465.24
562.043,32634.56
562.248,32591.5
562.452,32581.91
562.656,32681.2
562.861,32545.81
563.065,32500.3
563.269,32603.6
563.474,32825.41
563.678,32762.64
563.882,32742.96
564.086,33081.96
564.291,32644.05
564.495,32946.31
564.699,32908.97
564.903,33126.57
565.107,32866.52
565.311,32935.94
565.516,32967.2
565.72,32885.46
565.924,32722.34
566.128,33133.76
566.332,33204.74
566.536,33361.29
566.74,33297.0
566.944,33562.72
567.148,33395.88
567.352,33630.74
567.556,33465.02
567.76,33620.4
567.964,33562.38
568.168,33630.39
568.372,33616.09
568.576,33957.76
568.78,33489.82
568.984,33933.28
569.188,33664.14
569.392,33840.67
569.595,33723.04
569.799,33947.5
570.003,33838.85
570.207,34127.31
570.411,34123.4
570.615,34413.25
570.818,34295.43
571.022,34552.22
571.226,34559.08
571.43,34708.71
571.633,34825.54
571.837,34684.36
572.041,34495.64
572.244,34972.57
572.448,34772.07
572.652,34982.4
572.855,34955.14
573.059,35093.19
573.263,34906.11
573.466,35251.79
573.67,34892.33
573.873,35276.42
574.077,35010.25
574.28,35107.69
574.484,35402.09
574.687,35358.67
574.891,35607.29
575.094,35734.74
575.298,35520.6
575.501,36017.3
575.705,35847.68
575.908,35934.23
576.112,35952.97
576.315,35930.93
576.518,36123.01
576.722,36053.14
576.925,36225.72
577.129,36102.33
577.332,36031.76
577.535,36326.95
577.739,36024.69
577.942,36330.25
578.145,36300.98
578.348,36413.09
578.552,36441.92
578.755,36680.31
578.958,36584.54
579.161,36895.69
579.365,36867.86
579.568,36943.84
579.771,36936.61
579.974,37287.57
580.177,37010.68
580.38,37227.24
580.583,37153.47
580.787,37144.09
580.99,37461.98
581.193,37416.63
581.396,37543.87
581.599,37732.61
581.802,37422.39
582.005,38084.43
582.208,37882.61
582.411,38338.57
582.614,38383.75
582.817,38524.07
583.02,38667.59
583.223,38840.71
583.426,38924.47
583.629,38967.95
583.831,39165.93
584.034,39248.27
584.237,39170.35
584.44,39403.98
584.643,39424.4
584.846,39646.95
585.049,39715.38
585.251,39683.26
585.454,39647.49
585.657,40035.84
585.86,39864.71
586.062,40153.62
586.265,40420.39
586.468,40196.81
586.671,40322.41
586.873,40642.82
587.076,40643.27
587.279,40605.69
587.481,40516.54
587.684,40714.48
587.886,40235.27
588.089,40614.54
588.292,40317.93
588.494,40470.13
588.697,40370.5
588.899,40737.6
589.102,40558.93
589.304,40776.84
589.507,40762.46
589.709,40923.08
589.912,41193.87
590.114,41343.86
590.317,41180.1
590.519,41670.24
590.722,41844.81
590.924,41611.59
591.126,41920.26
591.329,41965.42
591.531,41831.58
591.734,42053.79
591.936,42230.47
592.138,42201.26
592.341,42541.59
592.543,42327.17
592.745,42116.13
592.947,42390.19
593.15,42487.53
593.352,42478.76
593.554,42549.56
593.756,42787.45
593.959,42915.08
594.161,42832.79
594.363,42937.06
594.565,43243.55
594.767,43027.25
594.969,43676.68
595.171,43336.76
595.374,43547.15
595.576,43692.63
595.778,43608.26
595.98,43920.27
596.182,43821.12
596.384,43564.76
596.586,43920.47
596.788,43645.92
596.99,43964.4
597.192,43671.76
597.394,43809.37
597.596,44052.46
597.798,44103.19
598.0,44146.42
598.202,44421.08
598.403,44335.27
598.605,44604.18
598.807,44587.47
599.009,44814.65
599.211,44502.79
599.413,44812.73
599.615,44787.19
599.816,44902.08
600.018,44879.39
600.22,44765.52
600.422,44949.35
600.623,45141.86
600.825,45222.38
601.027,45229.33
601.228,45335.25
601.43,45321.36
601.632,45262.16
601.833,45367.34
602.035,45560.42
602.237,45949.82
602.438,45388.8
602.64,45924.22
602.842,45371.84
603.043,45683.73
603.245,45748.34
603.446,45779.9
603.648,45356.03
603.849,45794.46
604.051,45299.51
604.252,45484.01
604.454,45574.98
604.655,45730.22
604.857,45502.3
605.058,45841.46
605.259,45819.59
605.461,45971.12
605.662,45842.18
605.864,45989.66
606.065,45716.87
606.266,46021.5
606.468,45976.32
606.669,45949.7
606.87,45974.46
607.072,45744.9
607.273,45750.51
607.474,45803.62
607.675,45577.71
607.877,45809.11
608.078,45382.62
608.279,45532.84
608.48,45836.39
608.681,45822.21
608.883,45814.7
609.084,46378.36
609.285,46117.37
609.486,46087.24
609.687,46159.39
609.888,45968.87
610.089,46060.41
610.29,46024.35
610.491,45717.87
610.692,46265.66
610.893,45915.72
611.094,46026.33
611.295,46135.12
611.496,46162.03
611.697,46119.13
611.898,46476.46
612.099,46185.99
612.3,46489.52
612.501,46794.22
612.702,46816.26
612.903,46807.63
613.104,46605.85
613.305,46614.06
613.505,46861.03
613.706,46536.2
613.907,46699.69
614.108,46658.89
614.309,46727.23
614.509,46532.55
614.71,46567.49
614.911,46615.88
615.112,46414.73
615.312,46547.97
615.513,46794.83
615.714,46594.91
615.914,46792.95
616.115,46731.53
616.316,46825.29
616.516,46730.22
616.717,47337.08
616.918,46593.62
617.118,46981.1
617.319,46804.3
617.519,46881.77
617.72,46563.5
617.92,46611.95
618.121,46466.81
618.321,46630.14
618.522,45958.44
618.722,46616.5
618.923,46251.82
619.123,46316.35
619.324,46349.77
619.524,46335.23
619.724,46151.42
619.925,46524.56
620.125,46406.99
620.326,46600.03
620.526,46418.91
620.726,46977.08
620.927,46813.43
621.127,47070.41
621.327,46919.06
621.527,47162.98
621.728,47033.71
621.928,47036.6
622.128,46820.89
622.328,47286.29
622.529,46784.37
622.729,46916.69
622.929,46926.46
623.129,46945.75
623.329,46959.33
623.529,47044.77
623.73,46763.83
623.93,47066.74
624.13,46824.26
624.33,47167.2
624.53,46622.66
624.73,47084.36
624.93,46915.83
625.13,46923.78
625.33,46827.38
625.53,46976.67
625.73,46895.94
625.93,47129.53
626.13,46884.43
626.33,47060.89
626.53,46573.59
626.73,47212.54
626.929,47032.62
627.129,47081.43
627.329,46945.73
627.529,47431.45
627.729,46729.57
627.929,47292.63
628.128,47104.32
628.328,47074.4
628.528,46717.59
628.728,47195.6
628.928,46777.28
629.127,47014.32
629.327,46918.7
629.527,47189.31
629.726,46898.4
629.926,47150.06
630.126,46945.81
630.325,47256.57
630.525,47126.03
630.725,47213.28
630.924,47170.08
631.124,47247.54
631.323,47179.14
631.523,47392.8
631.722,47208.61
631.922,47272.54
632.122,47155.97
632.321,47217.97
632.521,47322.04
632.72,47302.49
632.919,46985.89
633.119,47362.14
633.318,47260.71
633.518,47199.47
633.717,47107.81
633.917,47037.23
634.116,47256.59
634.315,47018.06
634.515,46355.53
634.714,47067.34
634.913,46671.81
635.113,46649.57
635.312,47017.49
635.511,46983.06
635.71,46757.99
635.91,46869.46
636.109,46837.06
636.308,46865.96
636.507,46768.42
636.706,47006.9
636.906,46625.9
637.105,47103.42
637.304,46867.54
637.503,46830.12
637.702,46982.47
637.901,47217.02
638.1,46852.61
638.299,47112.82
638.499,47047.55
638.698,47180.53
638.897,47485.74
639.096,47431.18
639.295,47443.04
639.494,47591.62
639.693,47285.45
639.892,47579.02
640.09,47375.13
640.289,47684.55
640.488,47558.83
640.687,47528.6
640.886,47160.11
641.085,47248.48
641.284,47382.87
641.483,47242.15
641.682,47023.63
641.88,47337.85
642.079,47237.99
642.278,47004.9
642.477,46946.28
642.675,47369.41
642.874,47077.29
643.073,47336.54
643.272,47214.2
643.47,47499.95
643.669,46785.72
643.868,47130.87
644.066,46871.1
644.265,47091.24
644.464,46800.86
644.662,47037.54
644.861,46945.73
645.059,47393.78
645.258,46695.65
645.457,46948.25
645.655,46784.92
645.854,47087.37
646.052,46849.56
646.251,47077.54
646.449,46832.76
646.648,47088.49
646.846,46764.96
647.044,47346.11
647.243,46971.92
647.441,47442.67
647.64,47290.05
647.838,47341.13
648.036,47559.38
648.235,47854.15
648.433,47373.18
648.631,48132.92
648.83,47683.92
649.028,48047.48
649.226,47829.26
649.425,47985.34
649.623,47723.36
649.821,47665.12
650.019,47556.45
650.218,47980.79
650.416,47768.97
650.614,47648.2
650.812,47594.69
651.01,47631.29
651.208,47401.79
651.406,47834.88
651.605,47630.77
651.803,47859.64
652.001,47323.89
652.199,47511.5
652.397,47407.42
652.595,47420.82
652.793,47354.09
652.991,47449.84
653.189,47152.02
653.387,47299.8
653.585,47143.17
653.783,47354.38
653.981,46904.83
654.179,47369.68
654.377,47180.18
654.574,47436.65
654.772,47233.61
654.97,47367.61
655.168,47628.32
655.366,47393.11
655.564,47443.45
655.761,47441.21
655.959,47283.52
656.157,47236.52
656.355,47260.97
656.553,47165.29
656.75,47001.82
656.948,47362.55
657.146,47206.97
657.343,47683.04
657.541,47787.24
657.739,47726.46
657.936,47618.18
658.134,47844.93
658.332,47700.36
658.529,47660.8
658.727,47385.71
658.924,48029.68
659.122,47531.35
659.319,47483.18
659.517,47230.85
659.714,47468.47
659.912,47278.57
660.109,47426.98
660.307,46919.31
660.504,47303.26
660.702,47345.53
660.899,46824.2
661.097,46924.02
661.294,47064.49
661.491,46752.61
661.689,47122.08
661.886,46538.24
662.083,46811.65
662.281,46515.8
662.478,46945.24
662.675,46631.24
662.873,46809.93
663.07,47046.67
663.267,47163.49
663.464,46727.03
663.662,47183.38
663.859,46936.08
664.056,46908.44
664.253,46798.26
664.45,47181.82
664.647,46563.23
664.845,46782.06
665.042,46706.75
665.239,46908.01
665.436,46328.45
665.633,46802.9
665.83,46204.82
666.027,46580.6
666.224,46385.59
666.421,46393.17
666.618,46369.86
666.815,46416.86
667.012,46268.9
667.209,46397.69
667.406,46170.98
667.603,46280.12
667.8,45947.73
667.997,46156.5
668.194,45833.62
668.39,45714.74
668.587,45523.35
668.784,45840.5
668.981,45471.29
669.178,45785.96
669.375,45198.81
669.571,45627.92
669.768,45191.5
669.965,45705.7
670.162,45449.85
670.358,45602.12
670.555,45285.71
670.752,45714.08
670.948,45059.73
671.145,45941.0
671.342,45136.88
671.538,45891.03
671.735,45596.4
671.932,45743.16
672.128,45384.34
672.325,45785.27
672.521,45668.94
672.718,45384.13
672.914,45811.42
673.111,45740.72
673.307,45087.5
673.504,45574.49
673.7,45268.42
673.897,45452.7
674.093,45247.92
674.29,45255.38
674.486,45041.65
674.682,45140.28
674.879,44682.87
675.075,44979.7
675.272,44493.02
675.468,44969.3
675.664,44591.77
675.861,44699.72
676.057,44127.05
676.253,44651.55
676.449,44260.08
676.646,44469.92
676.842,44414.62
677.038,44637.79
677.234,44160.96
677.43,44577.44
677.627,44209.07
677.823,44710.25
678.019,44406.6
678.215,44436.97
678.411,44119.7
678.607,44437.64
678.803,43734.74
678.999,44109.07
679.196,43528.47
679.392,43892.97
679.588,43640.86
679.784,43924.22
679.98,43524.82
680.176,43653.54
680.372,43411.65
680.568,43845.39
680.763,43512.49
680.959,43545.4
681.155,43568.49
681.351,43867.76
681.547,43525.68
681.743,43907.59
681.939,43904.19
682.135,44105.2
682.33,43683.75
682.526,44090.31
682.722,43557.47
682.918,43612.11
683.114,43651.08
683.309,44055.74
683.505,43326.83
683.701,43530.64
683.897,43486.65
684.092,43587.35
684.288,43380.89
684.484,43694.97
684.679,43145.27
684.875,43236.88
685.07,43332.46
685.266,43431.58
685.462,42977.77
685.657,43175.19
685.853,43281.63
686.048,42837.36
686.244,43039.56
686.439,42939.41
686.635,42664.45
686.83,42714.75
687.026,42237.08
687.221,42640.94
687.417,42519.39
687.612,42497.32
687.807,42364.4
688.003,42366.55
688.198,42036.44
688.394,42193.25
688.589,42057.31
688.784,42308.92
688.98,41755.11
689.175,41997.28
689.37,41866.71
689.565,41924.19
689.761,41782.21
689.956,42179.02
690.151,41948.58
690.346,41774.59
690.542,41633.28
690.737,41955.51
690.932,41580.56
691.127,41753.13
691.322,41548.47
691.517,41991.28
691.713,41752.82
691.908,41999.09
692.103,41848.38
692.298,42080.17
692.493,41884.99
692.688,42262.05
692.883,41923.13
693.078,42104.93
693.273,42025.89
693.468,42172.86
693.663,41747.43
693.858,42133.39
694.053,41859.93
694.248,42085.72
694.443,41759.29
694.637,41802.93
694.832,41916.72
695.027,41830.89
695.222,41693.47
695.417,42081.86
695.612,41775.08
695.806,41913.32
696.001,41521.7
696.196,41736.11
696.391,41674.61
696.585,41627.58
696.78,41206.69
696.975,41277.05
697.17,41080.26
697.364,41089.5
697.559,41121.51
697.754,41143.04
697.948,40821.14
698.143,41026.57
698.337,40813.54
698.532,41023.58
698.727,40585.72
698.921,41027.57
699.116,40851.77
699.31,41022.33
699.505,40675.4
699.699,41249.37
699.894,41031.48
700.088,41091.98
700.283,41007.77
700.477,41181.48
700.671,41269.13
700.866,41217.19
701.06,41146.29
701.255,41129.03
701.449,41305.99
701.643,41367.62
701.838,41148.22
702.032,41092.12
702.226,40768.99
702.421,40767.95
702.615,40438.35
702.809,40409.92
703.003,40209.1
703.198,40354.3
703.392,39807.49
703.586,40219.11
703.78,39891.62
703.974,39720.95
704.169,39702.17
704.363,39712.77
704.557,39450.27
704.751,39567.76
704.945,39375.15
705.139,39555.08
705.333,39491.08
705.527,39612.94
705.721,39196.42
705.915,39465.32
706.109,39244.9
706.303,39593.77
706.497,39037.68
706.691,39379.96
706.885,39205.08
707.079,39204.74
707.273,38969.51
707.467,39143.99
707.661,38936.47
707.855,39334.11
708.048,39300.97
708.242,39362.47
708.436,39303.34
708.63,39692.83
708.824,39289.32
709.018,39398.17
709.211,39388.15
709.405,39479.53
709.599,39215.94
709.792,39055.25
709.986,38908.87
710.18,39058.26
710.374,38964.63
710.567,39092.3
710.761,38707.51
710.954,39032.87
711.148,38711.89
711.342,39090.4
711.535,38582.83
711.729,38799.18
711.922,38637.22
712.116,38877.98
712.309,38285.03
712.503,38841.22
712.696,38752.4
712.89,38461.51
713.083,38772.57
713.277,38839.93
713.47,38433.24
713.664,38705.73
713.857,38123.06
714.05,38497.94
714.244,38309.42
714.437,38302.05
714.631,38110.77
714.824,38197.85
715.017,38204.94
715.21,37983.12
715.404,37941.53
715.597,38158.65
715.79,37786.54
715.984,37908.8
716.177,37382.47
716.37,37566.71
716.563,37486.67
716.756,37777.01
716.949,37571.99
717.143,37735.67
717.336,37326.58
717.529,37425.23
717.722,37282.45
717.915,37524.32
718.108,37525.54
718.301,37347.86
718.494,37165.65
718.687,37280.69
718.88,37153.45
719.073,37541.6
719.266,37390.23
719.459,37507.95
719.652,37280.2
719.845,37443.56
720.038,37214.48
720.231,37436.54
720.424,37272.09
720.617,37371.23
720.809,37107.1
721.002,37221.91
721.195,37077.37
721.388,37194.08
721.581,36902.72
721.774,37184.58
721.966,37070.85
722.159,37313.66
722.352,36913.61
722.544,37042.84
722.737,36849.3
722.93,37177.02
723.123,36990.0
723.315,37113.78
723.508,36992.4
723.701,37186.58
723.893,36530.85
724.086,37078.31
724.278,36921.11
724.471,36721.47
724.663,36787.58
724.856,37236.43
725.048,36670.35
725.241,37013.37
725.433,36387.08
725.626,36995.45
725.818,36423.33
726.011,36775.41
726.203,36393.65
726.396,36514.18
726.588,36413.48
726.78,36752.72
726.973,36426.83
727.165,36297.48
727.358,36062.19
727.55,36504.75
727.742,36118.36
727.934,36375.2
728.127,36312.84
728.319,36141.14
728.511,36078.98
728.704,36356.07
728.896,35968.41
729.088,36215.03
729.28,36072.78
729.472,35961.24
729.664,35805.78
729.857,35685.51
730.049,35675.45
730.241,35753.99
730.433,35632.09
730.625,35744.34
730.817,35417.16
731.009,35850.33
731.201,35688.19
731.393,35902.06
731.585,35667.09
731.777,35439.73
731.969,35537.19
732.161,35980.04
732.353,35983.26
732.545,36042.2
732.737,35497.24
732.929,35659.87
733.121,35470.69
733.313,35693.88
733.504,35684.58
733.696,35618.46
733.888,35308.88
734.08,35796.4
734.272,35377.57
734.463,35609.22
734.655,35268.81
734.847,35459.29
735.039,35221.74
735.23,35666.64
735.422,35103.82
735.614,35264.85
735.805,35135.3
735.997,35203.48
736.189,34747.74
736.38,35171.75
736.572,34904.43
736.764,34795.62
736.955,34735.49
737.147,34994.52
737.338,35160.43
737.53,34710.14
737.721,34777.78
737.913,34684.36
738.104,34789.74
738.296,34806.25
738.487,34681.04
738.679,34748.7
738.87,34584.8
739.061,34873.2
739.253,34617.14
739.444,34738.95
739.636,34512.1
739.827,34620.42
740.018,34666.95
740.21,34840.23
740.401,34725.32
740.592,34795.17
740.783,34430.33
740.975,34795.03
741.166,34581.57
741.357,34703.07
741.548,34655.64
741.74,34556.99
741.931,34432.41
742.122,34516.24
742.313,34288.32
742.504,34333.21
742.695,34252.73
742.886,34553.82
743.077,34107.57
743.269,34275.17
743.46,34058.21
743.651,34028.49
743.842,34060.05
744.033,34228.36
744.224,33940.41
744.415,34137.59
744.606,33921.65
744.797,34312.9
744.987,33830.09
745.178,34249.72
745.369,33943.61
745.56,34222.87
745.751,33875.08
745.942,34205.03
746.133,33877.87
746.324,34172.59
746.514,33863.51
746.705,34084.98
746.896,33791.4
747.087,33926.53
747.277,33792.77
747.468,33760.93
747.659,33355.94
747.85,33408.49
748.04,33390.94
748.231,33388.48
748.422,33384.76
748.612,33252.46
748.803,33088.78
748.993,33236.16
749.184,32944.46
749.375,33069.78
749.565,32927.57
749.756,32925.85
749.946,32822.16
750.137,33086.24
750.327,32616.56
750.518,32844.46
750.708,32713.43
750.899,32705.61
751.089,32561.6
751.279,32587.52
751.47,32605.32
751.66,32690.09
751.851,32385.14
752.041,32523.52
752.231,32439.58
752.422,32606.88
752.612,32412.32
752.802,32335.56
752.993,32248.65
753.183,32376.34
753.373,32025.07
753.563,32160.19
753.754,31963.04
753.944,32244.9
754.134,31681.97
754.324,31846.47
754.514,31813.66
754.704,31879.31
754.895,31535.26
755.085,31775.18
755.275,31569.68
755.465,31817.47
755.655,31479.49
755.845,31753.49
756.035,31444.41
756.225,31713.68
756.415,31434.86
756.605,31637.94
756.795,31442.61
756.985,31416.72
757.175,31217.02
757.365,31452.27
757.555,31149.13
757.745,31260.28
757.934,31028.28
758.124,31270.58
758.314,30655.37
758.504,31032.17
758.694,30747.83
758.884,30787.93
759.073,30632.7
759.263,30503.74
759.453,30402.01
759.643,30440.13
759.832,30167.03
760.022,30333.53
760.212,30044.23
760.401,30295.64
760.591,29988.51
760.781,30005.22
760.97,30009.79
761.16,30079.19
761.35,30001.33
761.539,29978.96
761.729,29869.13
761.918,30096.11
762.108,30035.2
762.297,30146.77
762.487,29909.05
762.676,29986.21
762.866,29678.06
763.055,29792.07
763.245,29724.07
763.434,29690.26
763.624,29722.03
763.813,29633.0
764.002,29126.7
764.192,29443.6
764.381,29199.1
764.57,29400.19
764.76,29011.63
764.949,29218.94
765.138,29115.77
765.328,29235.84
765.517,29084.72
765.706,29050.7
765.895,28883.63
766.085,28981.93
766.274,28844.84
766.463,28839.8
766.652,28648.79
766.841,28780.74
767.03,28612.13
767.219,28451.81
767.409,28570.49
767.598,28629.7
767.787,28394.84
767.976,28627.43
768.165,28087.73
768.354,28292.71
768.543,27961.26
768.732,28259.06
768.921,27927.39
769.11,28043.0
769.299,27797.57
769.488,27840.23
769.677,27532.19
769.865,27778.63
770.054,27487.61
770.243,27583.23
770.432,27450.03
770.621,27513.7
770.81,27220.41
770.998,27248.02
771.187,27173.68
771.376,27127.78
771.565,26967.26
771.754,27090.75
771.942,27173.47
772.131,27073.31
772.32,26882.66
772.508,27191.8
772.697,26970.62
772.886,27029.38
773.074,27007.4
773.263,27260.02
773.451,26852.9
773.64,27171.49
773.829,27001.14
774.017,26756.59
774.206,27006.77
774.394,26929.48
774.583,26770.57
774.771,26690.15
774.96,26658.08
775.148,26793.86
775.337,26571.76
775.525,26885.47
775.713,26360.33
775.902,26708.17
776.09,26433.03
776.279,26408.49
776.467,26489.1
776.655,26383.14
776.844,26121.12
777.032,26217.21
777.22,26148.07
777.408,26075.39
777.597,26004.12
777.785,25991.63
777.973,25623.24
778.161,25877.37
778.35,25699.71
778.538,25716.79
778.726,25439.54
778.914,25604.3
779.102,25617.45
779.29,25584.02
779.478,25438.02
779.666,25532.35
779.854,25331.57
780.043,25417.71
780.231,25126.12
780.419,25401.84
780.607,25242.07
780.795,25181.78
780.983,25159.44
781.17,25117.86
781.358,25062.69
781.546,25055.4
781.734,24967.99
781.922,24873.17
782.11,24739.5
782.298,24599.97
782.486,24645.81
782.674,24646.81
782.861,24435.11
783.049,24599.09
783.237,24176.64
783.425,24310.1
783.612,24142.83
783.8,24098.51
783.988,24146.96
784.176,24147.47
784.363,23813.08
784.551,24068.28
784.739,23803.15
784.926,23849.91
785.114,23705.03
785.301,23895.74
785.489,23602.53
785.677,23910.91
785.864,23695.43
786.052,23631.47
786.239,23785.39
786.427,23859.04
786.614,23489.05
786.802,23768.58
786.989,23443.69
787.177,23775.95
787.364,23403.37
787.551,23608.41
787.739,23383.19
787.926,23448.32
788.114,23196.83
788.301,23368.12
788.488,23086.65
788.676,23289.42
788.863,23143.31
789.05,22985.05
789.238,22833.83
789.425,23028.22
789.612,22578.77
789.799,22789.43
789.986,22475.84
790.174,22650.0
790.361,22393.96
790.548,22502.49
790.735,22352.27
790.922,22363.33
791.109,22234.71
791.296,22326.65
791.484,22301.11
791.671,22390.95
791.858,22072.64
792.045,22203.38
792.232,22308.97
792.419,22244.6
792.606,22169.1
792.793,22142.96
792.98,22039.5
793.167,22014.54
793.353,21775.54
793.54,21954.82
793.727,21741.15
793.914,21813.63
794.101,21567.28
794.288,21902.14
794.475,21583.77
794.662,21578.67
794.848,21411.94
795.035,21547.33
795.222,21639.53
795.409,21754.96
795.595,21425.25
795.782,21663.56
795.969,21599.43
796.155,21618.48
796.342,21585.32
796.529,21768.27
796.715,21436.19
796.902,21712.44
797.089,21511.58
797.275,21632.04
797.462,21531.89
797.648,21673.84
797.835,21286.67
798.021,21580.98
798.208,21396.77
798.394,21620.49
798.581,21342.02
798.767,21360.62
798.954,21232.93
799.14,21494.6
799.327,21397.22
799.513,21632.26
799.699,21364.43
799.886,21712.67
800.072,21409.85
800.258,21668.47
800.445,21445.51
800.631,21547.37
800.817,21453.93
801.004,21628.04
801.19,21305.67
801.376,21570.29
801.562,21349.05
801.749,21509.65
801.935,21252.83
802.121,21541.07
802.307,21268.19
802.493,21270.86
802.679,21311.82
802.866,21588.72
803.052,21374.12
803.238,21567.91
803.424,21212.22
803.61,21335.86
803.796,21369.1
803.982,21430.5
804.168,21353.64
804.354,21569.59
804.54,21380.05
804.726,21357.61
804.912,21219.25
805.098,21534.18
805.283,21198.11
805.469,21235.1
805.655,21334.3
805.841,21304.26
806.027,21249.07
806.213,21291.85
806.399,21346.45
806.584,21219.62
806.77,21284.46
806.956,21281.65
807.142,21108.11
807.327,21244.99
807.513,21147.63
807.699,21179.85
807.884,21076.42
808.07,21061.84
808.256,20900.15
808.441,21065.94
808.627,20875.52
808.813,21152.5
808.998,20900.22
809.184,21042.14
809.369,20809.59
809.555,20867.18
809.74,20730.05
809.926,21006.16
810.111,20745.96
810.297,20870.17
810.482,20622.9
810.668,20632.94
810.853,20649.69
811.039,20732.2
811.224,20434.1
811.409,20684.22
811.595,20553.37
811.78,20567.05
811.965,20408.4
812.151,20573.2
812.336,20300.37
812.521,20534.94
812.706,20430.68
812.892,20508.4
813.077,20412.78
813.262,20504.83
813.447,20460.6
813.633,20566.99
813.818,20520.69
814.003,20524.97
814.188,20277.37
814.373,20554.29
814.558,20515.01
814.743,20631.54
814.928,20295.41
815.113,20469.02
815.298,20307.53
815.483,20514.01
815.668,20334.46
815.853,20344.7
816.038,20255.84
816.223,20279.17
816.408,20282.84
816.593,20347.31
816.778,20245.07
816.963,20256.81
817.148,20156.56
817.333,20092.17
817.518,20059.22
817.702,20079.92
817.887,19824.6
818.072,19960.73
818.257,19764.47
818.442,19940.6
818.626,19827.28
818.811,19958.46
818.996,19619.52
819.18,19895.73
819.365,19646.76
819.55,19872.87
819.734,19618.43
819.919,19737.79
820.104,19624.41
820.288,19783.79
820.473,19451.28
820.657,19567.87
820.842,19384.15
821.026,19460.23
821.211,19250.66
821.396,19398.79
821.58,19272.51
821.764,19390.02
821.949,19239.74
822.133,19333.29
822.318,19284.61
822.502,19356.25
822.687,19336.59
822.871,19369.79
823.055,19229.13
823.24,19322.99
823.424,19154.2
823.608,19445.52
823.793,19137.51
823.977,19302.1
824.161,19161.31
824.345,19250.19
824.53,19117.27
824.714,19244.8
824.898,18844.24
825.082,18955.55
825.266,18616.81
825.45,18922.62
825.635,18601.13
825.819,18710.9
826.003,18592.95
826.187,18675.73
826.371,18491.27
826.555,18525.49
826.739,18431.82
826.923,18423.87
827.107,18307.57
827.291,18393.6
827.475,18183.71
827.659,18411.2
827.843,18271.75
828.027,18301.24
828.211,18149.3
828.395,18400.67
828.578,18198.15
828.762,18403.19
828.946,18266.34
829.13,18203.14
829.314,18105.66
829.498,18193.99
829.681,18238.35
829.865,18450.35
830.049,18210.76
830.233,18341.54
830.416,18139.43
830.6,18353.89
830.784,18187.15
830.967,18222.58
831.151,18281.29
831.335,18321.11
831.518,18012.37
831.702,18191.35
831.885,17974.41
832.069,18039.16
832.252,17983.27
832.436,17988.05
832.619,17883.8
832.803,17946.31
832.986,17790.5
833.17,17847.35
833.353,17760.9
833.537,17703.38
833.72,17701.33
833.904,17647.32
834.087,17581.56
834.27,17804.96
834.454,17549.0
834.637,17630.67
834.82,17554.33
835.004,17777.84
835.187,17390.92
835.37,17628.07
835.553,17487.87
835.737,17604.87
835.92,17376.32
836.103,17605.48
836.286,17436.08
836.469,17456.6
836.653,17265.97
836.836,17507.65
837.019,17242.79
837.202,17386.09
837.385,17388.28
837.568,17481.03
837.751,17253.99
837.934,17281.13
838.117,17089.83
838.3,17305.17
838.483,17200.81
838.666,17219.97
838.849,17001.72
839.032,17089.93
839.215,16945.71
839.398,17085.53
839.581,16857.14
839.764,16952.02
839.947,16920.05
840.129,16905.94
840.312,16885.44
840.495,16851.98
840.678,16798.87
840.861,16958.78
841.043,16735.98
841.226,16827.71
841.409,16796.54
841.592,16677.28
841.774,16642.3
841.957,16854.41
842.14,16695.22
842.322,16783.96
842.505,16666.12
842.687,16814.13
842.87,16472.28
843.053,16774.44
843.235,16568.78
843.418,16763.2
843.6,16507.69
843.783,16645.93
843.965,16421.02
844.148,16517.28
844.33,16491.9
844.513,16429.56
844.695,16408.57
844.878,16377.67
845.06,16172.56
845.242,16356.82
845.425,16199.29
845.607,16284.38
845.789,16135.33
845.972,16287.58
846.154,16033.53
846.336,16176.1
846.519,16065.68
846.701,16114.73
846.883,15925.72
847.065,16075.53
847.247,15978.52
847.43,16201.91
847.612,15983.25
847.794,16083.29
847.976,15845.21
848.158,16164.33
848.34,16057.14
848.522,16079.93
848.704,15835.94
848.886,15965.47
849.069,15941.92
849.251,15861.13
849.433,15809.17
849.615,15997.42
849.797,15770.07
849.978,15959.2
850.16,15654.63
850.342,15767.62
850.524,15628.85
850.706,15793.3
850.888,15607.08
851.07,15698.05
851.252,15601.18
851.434,15700.2
851.615,15522.0
851.797,15654.45
851.979,15564.81
852.161,15583.2
852.342,15472.18
852.524,15501.38
852.706,15372.48
852.887,15506.87
853.069,15401.48
853.251,15585.82
853.432,15317.82
853.614,15442.24
853.796,15402.16
853.977,15462.16
854.159,15309.38
854.34,15330.6
854.522,15303.55
854.703,15290.3
854.885,15101.31
855.066,15335.58
855.248,15253.19
855.429,15170.55
855.611,15157.83
855.792,15209.96
855.974,14902.47
856.155,15272.17
856.336,14854.43
856.518,15106.49
856.699,14880.68
856.881,14947.96
857.062,14790.41
857.243,14912.73
857.424,14812.98
857.606,14899.63
857.787,14810.91
857.968,14899.44
858.149,14884.53
858.331,14770.93
858.512,14647.19
858.693,14815.97
858.874,14716.17
859.055,14622.88
859.236,14587.27
859.417,14713.24
859.598,14535.17
859.779,14663.27
859.961,14466.21
860.142,14650.31
860.323,14415.96
860.504,14499.33
860.685,14492.18
860.865,14496.48
861.046,14353.06
861.227,14485.96
861.408,14319.42
861.589,14386.04
861.77,14130.25
861.951,14322.53
862.132,14128.48
862.313,14263.04
862.493,13972.39
862.674,14155.74
862.855,13842.51
863.036,14084.23
863.216,13871.53
863.397,13951.38
863.578,13688.44
863.759,13892.29
863.939,13687.35
864.12,13793.07
864.301,13583.31
864.481,13541.13
864.662,13503.12
864.842,13567.22
865.023,13473.05
865.204,13506.95
865.384,13347.9
865.565,13380.01
865.745,13301.25
865.926,13427.28
866.106,13145.99
866.287,13356.54
866.467,13169.58
866.648,13199.87
866.828,13187.85
867.008,13197.17
867.189,13103.15
867.369,13151.38
867.549,13121.33
867.73,13017.54
867.91,12986.41
868.09,13120.29
868.271,12838.0
868.451,12949.61
868.631,12789.81
868.811,12908.37
868.992,12788.31
869.172,12755.03
869.352,12704.86
869.532,12671.7
869.712,12562.75
869.892,12695.83
870.073,12494.7
870.253,12517.1
870.433,12407.8
870.613,12491.46
870.793,12322.18
870.973,12402.35
871.153,12220.06
871.333,12328.38
871.513,12165.04
871.693,12241.14
871.873,12216.62
872.053,12313.7
872.233,12075.74
872.412,12158.15
872.592,12062.84
872.772,12155.82
872.952,12141.14
873.132,12169.87
873.312,12120.66
873.492,12268.15
873.671,11991.31
873.851,12215.95
874.031,11992.6
874.211,12135.4
874.39,12076.81
874.57,12084.82
874.75,11923.03
874.929,12152.85
875.109,12019.42
875.289,12020.18
875.468,11959.71
875.648,12068.47
875.827,11932.75
876.007,11979.76
876.186,11897.04
876.366,11959.64
876.545,11737.71
876.725,11860.67
876.904,11791.12
877.084,11833.65
877.263,11644.67
877.443,11760.42
877.622,11604.26
877.802,11666.38
877.981,11441.88
878.16,11610.75
878.34,11520.31
878.519,11399.44
878.698,11376.16
878.878,11430.22
879.057,11353.16
879.236,11390.98
879.415,11302.14
879.595,11328.07
879.774,11292.17
879.953,11240.75
880.132,11106.21
880.311,11127.45
880.49,11118.67
880.67,11158.91
880.849,11065.52
881.028,11151.17
881.207,11036.48
881.386,11155.1
881.565,11048.73
881.744,11082.21
881.923,11010.9
882.102,11164.01
882.281,11058.15
882.46,11155.47
882.639,11095.32
882.818,11147.69
882.997,10996.22
883.176,11180.66
883.354,11126.31
883.533,11062.41
883.712,11091.16
883.891,11216.72
884.07,11119.75
884.249,11167.35
884.427,11013.44
884.606,11079.24
884.785,11010.92
884.964,11147.22
885.142,10962.9
885.321,11091.02
885.5,10961.75
885.678,11041.09
885.857,10891.65
886.036,11009.84
886.214,10942.83
886.393,10948.11
886.571,10789.25
886.75,10906.07
886.928,10823.74
887.107,10869.67
887.285,10751.3
887.464,10816.61
887.642,10702.7
887.821,10733.53
887.999,10651.75
888.178,10674.52
888.356,10626.4
888.534,10689.33
888.713,10583.63
888.891,10588.65
889.07,10519.39
889.248,10633.89
889.426,10481.15
889.604,10559.78
889.783,10445.11
889.961,10490.76
890.139,10439.01
890.317,10493.93
890.496,10389.2
890.674,10522.32
890.852,10419.94
891.03,10483.65
891.208,10358.54
891.386,10530.12
891.564,10428.79
891.742,10525.02
891.921,10399.38
892.099,10505.75
892.277,10374.68
892.455,10420.12
892.633,10439.29
892.811,10430.0
892.989,10371.94
893.167,10404.03
893.344,10327.84
893.522,10450.72
893.7,10405.79
893.878,10444.13
894.056,10298.6
894.234,10344.49
894.412,10310.91
894.589,10402.53
894.767,10220.57
894.945,10428.44
895.123,10282.17
895.301,10390.33
895.478,10303.86
895.656,10358.85
895.834,10220.26
896.011,10266.47
896.189,10304.64
896.367,10331.98
896.544,10219.83
896.722,10302.67
896.899,10258.77
897.077,10213.87
897.255,10178.89
897.432,10267.45
897.61,10208.98
897.787,10254.12
897.965,10137.83
898.142,10230.52
898.32,10196.51
898.497,10182.99
898.674,10089.46
898.852,10117.31
899.029,10097.18
899.207,10089.46
899.384,10007.11
899.561,10065.74
899.739,10021.82
899.916,10163.13
900.093,9974.12
900.27,10078.28
900.448,9981.04
900.625,10044.12
900.802,10043.77
900.979,10022.57
901.156,9944.69
901.334,9956.18
901.511,9897.5
901.688,9969.12
901.865,9808.91
902.042,9936.33
902.219,9805.55
902.396,9839.79
902.573,9831.72
902.75,9811.06
902.927,9722.96
903.104,9802.05
903.281,9759.02
903.458,9728.91
903.635,9692.54
903.812,9688.37
903.989,9596.8
904.166,9641.38
904.343,9569.95
904.52,9593.81
904.696,9501.22
904.873,9606.96
905.05,9544.6
905.227,9623.03
905.404,9591.52
905.58,9580.17
905.757,9566.39
905.934,9575.73
906.111,9507.39
906.287,9536.94
906.464,9465.36
906.641,9534.46
906.817,9406.65
906.994,9542.9
907.17,9347.91
907.347,9460.69
907.524,9434.46
907.7,9504.15
907.877,9436.71
908.053,9413.69
908.23,9404.6
908.406,9445.25
908.583,9468.68
908.759,9478.43
908.935,9352.09
909.112,9450.35
909.288,9399.31
909.465,9540.46
909.641,9497.88
909.817,9588.49
909.994,9459.87
910.17,9529.28
910.346,9438.29
910.523,9503.27
910.699,9413.36
910.875,9524.86
911.051,9500.71
911.228,9470.81
911.404,9429.11
911.58,9482.69
911.756,9337.73
911.932,9409.72
912.108,9346.83
912.284,9340.03
912.46,9290.67
912.637,9333.88
912.813,9212.87
912.989,9281.02
913.165,9166.77
913.341,9202.1
913.517,9116.04
913.693,9260.91
913.869,9078.13
914.044,9082.88
914.22,9015.18
914.396,9065.5
914.572,8961.81
914.748,9034.96
914.924,8870.16
915.1,8990.79
915.276,8889.33
915.451,8849.89
915.627,8866.0
915.803,8835.59
915.979,8741.77
916.154,8793.48
916.33,8761.09
916.506,8754.35
916.681,8737.78
916.857,8775.5
917.033,8716.4
917.208,8757.05
917.384,8657.75
917.56,8716.15
917.735,8680.31
917.911,8782.51
918.086,8693.61
918.262,8686.31
918.437,8648.26
918.613,8781.83
918.788,8663.99
918.964,8777.04
919.139,8606.18
919.314,8706.94
919.49,8632.37
919.665,8726.27
919.841,8620.45
920.016,8634.75
920.191,8562.06
920.367,8620.7
920.542,8572.3
920.717,8596.53
920.892,8600.79
921.068,8663.77
921.243,8531.49
921.418,8557.93
921.593,8512.42
921.769,8458.25
921.944,8492.17
922.119,8503.74
922.294,8368.22
922.469,8440.68
922.644,8416.17
922.819,8388.87
922.994,8289.17
923.169,8333.35
923.344,8277.48
923.519,8298.92
923.694,8151.49
923.869,8262.75
924.044,8148.91
924.219,8198.22
924.394,8132.44
924.569,8186.49
924.744,8097.67
924.919,8107.33
925.094,8069.32
925.268,8079.09
925.443,8063.4
925.618,8048.74
925.793,8021.46
925.968,8080.05
926.142,7979.99
926.317,8003.95
926.492,7956.68
926.666,8017.3
926.841,7933.4
927.016,7977.84
927.19,7905.94
927.365,7986.24
927.54,7877.26
927.714,7977.31
927.889,7903.09
928.063,7978.13
928.238,7899.53
928.412,7942.84
928.587,7843.8
928.761,7886.13
928.936,7798.38
929.11,7852.59
929.285,7753.12
929.459,7870.18
929.634,7771.18
929.808,7877.96
929.982,7787.07
930.157,7778.29
930.331,7731.67
930.505,7807.84
930.68,7745.54
930.854,7783.55
931.028,7681.17
931.202,7719.41
931.377,7678.3
931.551,7780.56
931.725,7563.11
931.899,7775.54
932.073,7623.38
932.247,7690.74
932.422,7612.87
932.596,7646.5
932.77,7555.1
932.944,7698.74
933.118,7545.84
933.292,7532.39
933.466,7479.18
933.64,7495.54
933.814,7463.9
933.988,7500.23
934.162,7392.51
934.336,7414.18
934.51,7386.94
934.683,7376.27
934.857,7335.39
935.031,7359.5
935.205,7255.56
935.379,7343.87
935.553,7275.04
935.726,7336.46
935.9,7201.54
936.074,7231.93
936.248,7183.19
936.421,7266.46
936.595,7089.72
936.769,7190.58
936.943,7112.53
937.116,7180.2
937.29,7043.13
937.463,7116.48
937.637,7000.12
937.811,7044.15
937.984,6976.57
938.158,7059.35
938.331,6950.21
938.505,6992.19
938.678,6941.9
938.852,6996.13
939.025,6919.06
939.199,6915.68
939.372,6865.63
939.545,6933.44
939.719,6866.39
939.892,6871.67
940.066,6819.02
940.239,6841.89
940.412,6843.96
940.586,6839.27
940.759,6801.28
940.932,6848.96
941.105,6789.94
941.279,6779.57
941.452,6789.06
941.625,6770.09
941.798,6749.08
941.971,6771.07
942.144,6696.47
942.318,6703.9
942.491,6668.51
942.664,6671.28
942.837,6621.7
943.01,6600.56
943.183,6506.7
943.356,6558.21
943.529,6489.4
943.702,6515.98
943.875,6444.71
944.048,6514.98
944.221,6427.02
944.394,6434.51
944.567,6349.52
944.74,6401.09
944.912,6331.36
945.085,6419.38
945.258,6304.81
945.431,6293.14
945.604,6238.27
945.776,6268.71
945.949,6294.76
946.122,6247.76
946.295,6188.1
946.467,6180.17
946.64,6122.59
946.813,6196.82
946.985,6101.78
947.158,6141.94
947.331,6077.02
947.503,6130.88
947.676,6043.27
947.848,6126.8
948.021,6018.24
948.194,6050.87
948.366,6002.96
948.539,6029.73
948.711,5989.47
948.883,5981.54
949.056,5938.17
949.228,5948.53
949.401,5868.31
949.573,5914.39
949.746,5862.43
949.918,5850.12
950.09,5818.15
950.263,5788.13
950.435,5777.44
950.607,5742.77
950.779,5670.0
950.952,5754.77
951.124,5679.18
951.296,5690.16
951.468,5616.82
951.64,5677.91
951.813,5580.98
951.985,5591.1
952.157,5564.55
952.329,5588.41
952.501,5515.24
952.673,5552.53
952.845,5474.05
953.017,5500.47
953.189,5420.46
953.361,5475.98
953.533,5438.15
953.705,5461.26
953.877,5396.31
954.049,5446.41
954.221,5395.52
954.393,5416.32
954.565,5352.0
954.737,5389.27
954.909,5331.56
955.08,5334.01
955.252,5297.29
955.424,5329.26
955.596,5283.18
955.768,5301.8
955.939,5241.67
956.111,5286.26
956.283,5187.09
956.454,5207.94
956.626,5205.63
956.798,5192.77
956.969,5150.35
957.141,5178.78
957.313,5079.29
957.484,5116.75
957.656,5112.38
957.827,5083.28
957.999,5047.14
958.17,5072.84
958.342,5029.52
958.513,5005.11
958.685,5011.52
958.856,5006.85
959.028,4965.01
959.199,4974.72
959.37,4917.6
959.542,4959.73
959.713,4903.65
959.884,4961.06
960.056,4904.27
960.227,4959.03
960.398,4845.35
960.57,4869.31
960.741,4825.67
960.912,4870.83
961.083,4789.07
961.254,4794.66
961.426,4738.57
961.597,4766.79
961.768,4712.07
961.939,4719.4
962.11,4669.2
962.281,4695.21
962.452,4639.14
962.623,4630.25
962.794,4592.67
962.965,4657.2
963.136,4593.82
963.307,4555.03
963.478,4540.04
963.649,4537.7
963.82,4496.81
963.991,4479.42
964.162,4451.38
964.333,4455.31
964.504,4413.0
964.675,4413.78
964.845,4380.99
965.016,4428.85
965.187,4304.19
965.358,4375.65
965.529,4370.71
965.699,4308.76
965.87,4321.68
966.041,4304.6
966.211,4278.1
966.382,4282.69
966.553,4192.6
966.723,4267.15
966.894,4176.56
967.065,4245.36
967.235,4152.64
967.406,4169.72
967.576,4121.49
967.747,4134.48
967.917,4075.37
968.088,4110.31
968.258,4028.17
968.429,4054.61
968.599,4001.5
968.769,4016.04
968.94,3970.27
969.11,3955.28
969.281,3904.06
969.451,3923.01
969.621,3880.67
969.792,3926.32
969.962,3827.55
970.132,3842.93
970.302,3783.8
970.473,3801.23
970.643,3754.83
970.813,3763.65
970.983,3708.75
971.153,3743.54
971.324,3705.57
971.494,3681.49
971.664,3642.33
971.834,3682.96
972.004,3600.29
972.174,3613.17
972.344,3571.53
972.514,3572.37
972.684,3536.41
972.854,3551.65
973.024,3489.02
973.194,3520.7
973.364,3473.17
973.534,3495.29
973.704,3426.66
973.874,3459.41
974.043,3411.69
974.213,3428.22
974.383,3373.06
974.553,3380.56
974.723,3351.42
974.893,3358.44
975.062,3309.9
975.232,3364.26
975.402,3288.87
975.571,3325.12
975.741,3277.18
975.911,3294.83
976.08,3237.14
976.25,3269.05
976.42,3217.64
976.589,3244.27
976.759,3212.05
976.928,3209.76
977.098,3172.2
977.267,3156.86
977.437,3155.06
977.606,3137.98
977.776,3098.6
977.945,3129.23
978.115,3066.73
978.284,3080.98
978.454,3088.48
978.623,3076.05
978.792,3016.43
978.962,3042.99
979.131,3022.92
979.3,3014.16
979.47,2994.95
979.639,3028.39
979.808,2952.8
979.977,2989.89
980.147,2934.64
980.316,2945.28
980.485,2898.1
980.654,2921.32
980.823,2893.29
980.992,2889.05
981.162,2873.52
981.331,2860.58
981.5,2846.41
981.669,2869.92
981.838,2809.83
982.007,2804.73
982.176,2792.04
982.345,2776.08
982.514,2727.52
982.683,2764.61
982.852,2719.58
983.021,2722.12
983.19,2700.45
983.358,2713.8
983.527,2656.64
983.696,2669.65
983.865,2639.22
984.034,2664.82
984.203,2635.06
984.371,2635.8
984.54,2587.57
984.709,2600.94
984.878,2569.73
985.046,2561.17
985.215,2533.87
985.384,2559.22
985.552,2486.7
985.721,2518.04
985.889,2472.41
986.058,2461.33
986.227,2460.33
986.395,2443.76
986.564,2419.55
986.732,2404.83
986.901,2367.53
987.069,2413.37
987.238,2399.26
987.406,2376.03
987.575,2359.81
987.743,2364.42
987.911,2338.37
988.08,2341.54
988.248,2289.46
988.416,2310.64
988.585,2274.47
988.753,2293.7
988.921,2269.43
989.09,2258.76
989.258,2249.02
989.426,2259.46
989.594,2222.68
989.763,2232.3
989.931,2195.18
990.099,2220.67
990.267,2185.18
990.435,2198.12
990.603,2177.23
990.771,2176.93
990.939,2153.48
991.107,2179.77
991.275,2123.58
991.443,2151.16
991.611,2116.66
991.779,2124.87
991.947,2093.19
992.115,2107.42
992.283,2077.52
992.451,2071.76
992.619,2059.31
992.787,2072.21
992.955,2031.13
993.123,2037.17
993.29,2021.3
993.458,2023.06
993.626,1974.22
993.794,1994.33
993.962,1971.0
994.129,1990.77
994.297,1939.71
994.465,1970.31
994.632,1932.77
994.8,1935.08
994.968,1916.47
995.135,1923.35
995.303,1884.95
995.47,1884.03
995.638,1877.21
995.806,1865.94
995.973,1853.59
996.141,1853.02
996.308,1822.49
996.476,1822.44
996.643,1796.62
996.81,1822.85
996.978,1784.56
997.145,1796.03
997.313,1752.98
997.48,1765.98
997.647,1761.91
997.815,1769.69
997.982,1728.87
998.149,1742.06
998.317,1723.67
998.484,1721.42
998.651,1690.45
998.818,1736.27
998.986,1676.79
999.153,1706.1
999.32,1678.82
999.487,1691.72
999.654,1672.66
999.821,1674.68
999.988,1649.37
1000.155,1632.39
1000.323,1641.22
1000.49,1656.97
1000.657,1622.21
1000.824,1633.46
1000.991,1626.84
1001.158,1632.27
1001.324,1589.18
1001.491,1613.74
1001.658,1587.32
1001.825,1624.51
1001.992,1582.79
1002.159,1600.85
1002.326,1557.85
1002.493,1587.85
1002.659,1554.65
1002.826,1579.37
1002.993,1541.28
1003.16,1563.29
1003.326,1533.82
1003.493,1555.66
1003.66,1528.66
1003.827,1533.01
1003.993,1504.15
1004.16,1522.95
1004.326,1487.32
1004.493,1499.44
1004.66,1491.41
1004.826,1478.32
1004.993,1464.79
1005.159,1464.97
1005.326,1436.67
1005.492,1444.72
1005.659,1412.61
1005.825,1419.4
1005.992,1404.66
1006.158,1397.25
1006.325,1378.24
1006.491,1374.49
1006.657,1359.97
1006.824,1368.96
1006.99,1338.26
1007.156,1361.02
1007.323,1335.95
1007.489,1331.14
1007.655,1303.0
1007.821,1311.7
1007.988,1288.11
1008.154,1298.9
1008.32,1275.66
1008.486,1285.79
1008.652,1263.47
1008.818,1261.18
1008.985,1238.57
1009.151,1246.49
1009.317,1243.16
1009.483,1240.76
1009.649,1216.76
1009.815,1234.12
1009.981,1203.79
1010.147,1223.93
1010.313,1196.24
1010.479,1200.74
1010.645,1192.37
1010.811,1207.42
1010.976,1166.69
1011.142,1182.39
1011.308,1166.01
1011.474,1178.77
1011.64,1151.45
1011.806,1163.08
1011.971,1147.52
1012.137,1147.95
1012.303,1129.47
1012.469,1131.75
1012.634,1119.83
1012.8,1120.05
1012.966,1110.84
1013.131,1115.67
1013.297,1080.53
1013.463,1096.93
1013.628,1083.48
1013.794,1087.2
1013.959,1060.05
1014.125,1075.28
1014.291,1044.93
1014.456,1061.64
1014.622,1031.05
1014.787,1045.04
1014.952,1020.89
1015.118,1023.39
1015.283,1004.47
1015.449,1012.27
1015.614,999.14
1015.779,995.74
1015.945,976.72
1016.11,990.6
1016.275,967.62
1016.441,973.91
1016.606,967.01
1016.771,973.21
1016.937,946.67
1017.102,967.95
1017.267,938.5
1017.432,948.27
1017.597,926.46
1017.762,949.19
1017.928,934.08
1018.093,931.29
1018.258,916.16
1018.423,929.94
1018.588,900.26
1018.753,920.79
1018.918,899.57
1019.083,911.86
1019.248,890.43
1019.413,901.86
1019.578,879.19
1019.743,892.09
1019.908,863.77
1020.073,877.61
1020.237,858.2
1020.402,860.29
1020.567,841.69
1020.732,851.34
1020.897,832.58
1021.062,836.25
1021.226,812.55
1021.391,835.06
1021.556,804.67
1021.72,809.89
1021.885,802.97
1022.05,812.26
1022.214,707.2
1022.379,800.24
1022.544,771.41
1022.708,772.14
1022.873,768.81
1023.037,761.17
1023.202,754.78
1023.366,757.52
1023.531,731.7
1023.695,732.13
1023.86,725.63
1024.024,713.37
1024.189,703.05
1024.353,697.5
1024.518,688.65
1024.682,699.87
1024.846,678.96
1025.011,676.16
1025.175,663.56
1025.339,675.19
1025.504,654.86
1025.668,653.51
1025.832,649.43
1025.996,641.85
1026.161,627.95
1026.325,623.95
1026.489,618.79
1026.653,619.3
1026.817,602.04
1026.981,605.36
1027.145,594.4
1027.309,596.16
1027.474,579.76
1027.638,581.05
1027.802,568.29
1027.966,572.75
1028.13,563.72
1028.294,562.66
1028.458,549.8
1028.621,556.35
1028.785,545.6
1028.949,544.64
1029.113,541.05
1029.277,534.85
1029.441,519.79
1029.605,530.85
1029.768,506.87
1029.932,514.98
1030.096,496.06
1030.26,511.34
1030.423,487.74
1030.587,494.46
1030.751,487.09
1030.915,492.68
1031.078,481.21
1031.242,477.4
1031.405,472.65
1031.569,471.03
1031.733,456.86
1031.896,469.95
1032.06,450.78
1032.223,451.55
1032.387,447.15
1032.55,446.68
1032.714,437.57
1032.877,437.75
1033.041,430.13
1033.204,427.33
1033.367,418.81
1033.531,432.45
1033.694,413.87
1033.858,415.92
1034.021,405.21
1034.184,408.98
1034.347,394.27
1034.511,395.73
1034.674,384.73
1034.837,389.26
1035.0,378.14
1035.164,393.23
1035.327,375.41
1035.49,378.59
1035.653,367.2
1035.816,366.15
1035.979,347.07
1036.142,366.95
1036.305,351.22
1036.468,352.62
1036.631,350.34
1036.794,349.96
1036.957,336.97
1037.12,340.0
1037.283,348.38
1037.446,340.86
1037.609,331.75
1037.772,331.11
1037.935,318.38
1038.098,328.57
1038.261,320.87
1038.424,322.68
1038.586,314.91
1038.749,321.28
1038.912,305.7
1039.075,321.35
1039.237,308.5
1039.4,313.83
1039.563,294.17
1039.725,309.71
1039.888,300.97
1040.051,300.66
1040.213,299.37
1040.376,299.96
1040.539,288.84
1040.701,307.05
1040.864,276.74
1041.026,291.73
1041.189,272.87
1041.351,289.56
1041.514,271.8
1041.676,280.0
1041.838,271.5
1042.001,288.84
1042.163,257.43
1042.326,267.73
1042.488,257.31
1042.65,261.26
1042.813,251.35
1042.975,249.81
1043.137,243.44
1043.3,252.82
1043.462,243.85
1043.624,246.04
1043.786,240.14
1043.948,238.65
1044.111,229.13
1044.273,238.5
1044.435,227.3
1044.597,233.34
1044.759,215.01
1044.921,229.66
1045.083,221.49
